Total Quantum Conductivity (W/m-K) = 	609.122	609.092	609.122
Total Classical Conductivity (W/m-K) = 	477.639	477.613	477.639

Quantum <(Delta/omega)^2>^1/2 = 	0.0105444
Quantum <(Gamma/omega)^2>^1/2 = 	0.000564747

Classical <(Delta/omega)^2>^1/2 = 	0.008495
Classical <(Gamma/omega)^2>^1/2 = 	0.000579688

Quantum effective MFP (nm) = 	265.574	265.565	265.574
Classical effective MFP (nm) = 	166.555	166.548	166.555

Quantum RMS Displacements in Angstroms
Atom 0:
  0.0706683  0.0706683  0.0706683  :  0.122401
Atom 1:
  0.0706683  0.0706683  0.0706683  :  0.122401
Average Quantum RMS Displacement = 0.122401

Classical RMS Displacements in Angstroms
Atom 0:
  0.0672022  0.0672022  0.0672022  :  0.116398
Atom 1:
  0.0672022  0.0672022  0.0672022  :  0.116398
Average Classical RMS Displacement = 0.116398



Density of States and Frequency Dependence of Thermal Conductivity
Quantum						Classical
Anharm Freq (1/ps)	DOS (area = 1e12)	k-DOS (area = 1e12)		Anharm Freq (1/ps)	DOS (area = 1e12)	k-DOS (area = 1e12)
1.13685	0	0	0	0		1.13685	0	0	0	0
3.41056	0	0	0	0		3.41056	0	0	0	0
5.68426	0	0	0	0		5.68426	0	0	0	0
7.95797	0.000881163	0.0375312	0.037533	0.0375312		7.95797	0.000881163	0.019859	0.0198601	0.019859
10.2317	0.000660873	0.0210905	0.0210915	0.0210905		10.2317	0.000660873	0.0207231	0.0207242	0.0207231
12.5054	0.000660873	0.00554299	0.00553768	0.00554299		12.5054	0.000660873	0.00790153	0.00789399	0.00790151
14.7791	0.00330436	0.0563016	0.0563017	0.0563016		14.7791	0	0	0	0
17.0528	0.00297393	0.0341009	0.0340989	0.0341009		17.0528	0.00495654	0.0755056	0.0755077	0.0755056
19.3265	0.00198262	0.0108344	0.0108349	0.0108344		19.3265	0.00132175	0.00608691	0.00608285	0.00608691
21.6002	0.00550727	0.0192587	0.0192579	0.0192587		21.6002	0.00286378	0.0115407	0.0115413	0.0115407
23.8739	0.0072696	0.0281486	0.0281465	0.0281486		23.8739	0.0072696	0.0236486	0.0236459	0.0236486
26.1476	0.00616814	0.0102994	0.0102992	0.0102994		26.1476	0.00594785	0.021023	0.0210225	0.021023
28.4213	0.0134377	0.0463441	0.0463445	0.0463441		28.4213	0.00748989	0.0157697	0.0157681	0.0157698
30.695	0.0149798	0.0232977	0.023298	0.0232977		30.695	0.0154204	0.0482097	0.0482122	0.0482097
32.9687	0.0122261	0.00924795	0.0092479	0.00924794		32.9687	0.0209276	0.0192683	0.0192682	0.0192683
35.2424	0.0165218	0.0100565	0.0100568	0.0100565		35.2424	0.0109044	0.00899285	0.00899319	0.00899285
37.5161	0.0178436	0.0314438	0.0314446	0.0314438		37.5161	0.0145392	0.0176086	0.0176095	0.0176086
39.7898	0.0132175	0.00798863	0.00798896	0.00798863		39.7898	0.0171827	0.0155338	0.015534	0.0155338
42.0636	0.0125566	0.0165559	0.0165568	0.0165559		42.0636	0.00925222	0.00684895	0.00684934	0.00684895
44.3373	0.00991309	0.012407	0.0124079	0.012407		44.3373	0.0165218	0.0308461	0.0308479	0.0308461
46.611	0.00903193	0.0079431	0.00794314	0.0079431		46.611	0.0096928	0.0126081	0.0126088	0.0126081
48.8847	0.0102435	0.0118905	0.0118914	0.0118905		48.8847	0.0109044	0.0112631	0.0112641	0.0112631
51.1584	0.00264349	0.00488816	0.00488841	0.00488816		51.1584	0.00462611	0.00877163	0.00877198	0.00877163
53.4321	0.00132175	0.00196128	0.00196138	0.00196128		53.4321	0	0	0	0
55.7058	0.00528698	0.00705368	0.00705403	0.00705368		55.7058	0.00396524	0.00670895	0.00670931	0.00670895
57.9795	0.00264349	0.00122729	0.00122735	0.00122729		57.9795	0.00264349	0.00369754	0.00369774	0.00369754
60.2532	0.00374494	0.00155476	0.00155483	0.00155476		60.2532	0.00572756	0.00359234	0.00359253	0.00359234
62.5269	0.00561742	0.00174459	0.00174471	0.00174459		62.5269	0.000660873	0.000172803	0.000172808	0.000172803
64.8006	0.00396524	0.000802213	0.000802252	0.000802213		64.8006	0.00958265	0.00359681	0.00359705	0.00359681
67.0743	0.00660873	0.000741979	0.000742043	0.000741979		67.0743	0.00396524	0.000622464	0.000622543	0.000622464
69.348	0.0145392	0.00155175	0.00155184	0.00155175		69.348	0.00793047	0.00192034	0.00192047	0.00192034
71.6217	0.00638844	0.000205708	0.000205738	0.000205708		71.6217	0.0110145	0.000660557	0.000660556	0.000660557
73.8954	0.00528698	0.000664306	0.000664341	0.000664306		73.8954	0.00859134	0.000735378	0.000735488	0.000735377
76.1691	0.00165218	0.000155728	0.000155736	0.000155728		76.1691	0.00165218	0.000664422	0.000664458	0.000664422
78.4428	0.00264349	6.88412e-05	6.88445e-05	6.88412e-05		78.4428	0.00264349	0.000186963	0.000186973	0.000186963
80.7165	0.00859134	0.000868994	0.000869069	0.000868994		80.7165	0.00660873	0.000670717	0.000670789	0.000670717
82.9902	0.00925222	0.00190675	0.00190698	0.00190675		82.9902	0.00991309	0.0031475	0.00314803	0.0031475
85.264	0.0110145	0.00319268	0.00319295	0.00319268		85.264	0.00793047	0.00279269	0.00279287	0.00279269
87.5377	0.00760003	0.00271572	0.0027159	0.00271572		87.5377	0.00737974	0.00680843	0.00680892	0.00680843
89.8114	0.00396524	0.00159979	0.00159987	0.00159979		89.8114	0.00594785	0.00395109	0.00395131	0.00395109
92.0851	0.00528698	0.00227757	0.00227762	0.00227757		92.0851	0.00528698	0.00511599	0.0051162	0.00511599
94.3588	0.006058	0.00130075	0.00130079	0.00130075		94.3588	0.00660873	0.00463832	0.00463857	0.00463832
96.6325	0.00396524	0.000969284	0.000969331	0.000969283		96.6325	0.00473625	0.00190065	0.0019007	0.00190065
98.9062	0.0191653	0.000618933	0.000618945	0.000618933		98.9062	0.00594785	0.00133604	0.00133606	0.00133604
101.18	0.0414147	0.000408945	0.000408954	0.000408945		101.18	0.0383306	0.00175803	0.00175811	0.00175803
103.454	0.0512176	0.000584854	0.000584873	0.000584854		103.454	0.0397625	0.00110412	0.00110416	0.00110412
105.727	0.0266552	0.00031615	0.000316141	0.00031615		105.727	0.048464	0.00140061	0.00140063	0.00140061
108.001	0.0177334	0.000126346	0.000126336	0.000126346		108.001	0.0183943	0.000426184	0.000426177	0.000426184
110.275	0.00600293	2.01884e-05	2.01843e-05	2.01884e-05		110.275	0.0112348	0.000178323	0.000178297	0.000178323
112.548	0	0	0	0		112.548	0.00269856	1.4096e-05	1.40902e-05	1.4096e-05
114.822	0	0	0	0		114.822	0	0	0	0
