Total Quantum Conductivity (W/m-K) = 	5.05045	5.05045	5.05045
Total Classical Conductivity (W/m-K) = 	3.90094	3.90094	3.90094

Quantum <(Delta/omega)^2>^1/2 = 	0.0377477
Quantum <(Gamma/omega)^2>^1/2 = 	0.00876896

Classical <(Delta/omega)^2>^1/2 = 	0.0110859
Classical <(Gamma/omega)^2>^1/2 = 	0.00551042

Quantum effective MFP (nm) = 	102.161	102.161	102.161
Classical effective MFP (nm) = 	10.102	10.102	10.102

Quantum RMS Displacements in Angstroms
Atom 0:
  0.101581  0.101581  0.101581  :  0.175944
Atom 1:
  0.101581  0.101581  0.101581  :  0.175944
Atom 2:
  0.101581  0.101581  0.101581  :  0.175944
Atom 3:
  0.101581  0.101581  0.101581  :  0.175944
Average Quantum RMS Displacement = 0.175944

Classical RMS Displacements in Angstroms
Atom 0:
  0.0645667  0.0645667  0.0645667  :  0.111833
Atom 1:
  0.0645667  0.0645667  0.0645667  :  0.111833
Atom 2:
  0.0645667  0.0645667  0.0645667  :  0.111833
Atom 3:
  0.0645667  0.0645667  0.0645667  :  0.111833
Average Classical RMS Displacement = 0.111833



Density of States and Frequency Dependence of Thermal Conductivity
Quantum						Classical
Anharm Freq (1/ps)	DOS (area = 1e12)	k-DOS (area = 1e12)		Anharm Freq (1/ps)	DOS (area = 1e12)	k-DOS (area = 1e12)
0.142923	0	0	0	0		0.142923	0	0	0	0
0.428768	0	0	0	0		0.428768	0	0	0	0
0.714613	0	0	0	0		0.714613	0	0	0	0
1.00046	0.00202454	0.0824928	0.0824928	0.0824928		1.00046	0	0	0	0
1.2863	0.00202454	0.145528	0.145528	0.145528		1.2863	0.00404907	0.0547352	0.0547352	0.0547352
1.57215	0.00371165	0.206867	0.206867	0.206867		1.57215	0.00269938	0.0142876	0.0142876	0.0142876
1.85799	0.00202454	0.0808061	0.0808061	0.0808061		1.85799	0.0030368	0.0934334	0.0934334	0.0934334
2.14384	0.0101227	0.269681	0.269681	0.269681		2.14384	0.00607361	0.0364686	0.0364686	0.0364686
2.42968	0.00607361	0.0967752	0.0967752	0.0967752		2.42968	0.0101227	0.0387341	0.0387341	0.0387341
2.71553	0.0101227	0.359065	0.359065	0.359065		2.71553	0.0101227	0.074858	0.074858	0.074858
3.00137	0.0148466	0.141311	0.141311	0.141311		3.00137	0.00404907	0.0111248	0.0111248	0.0111248
3.28722	0.0192331	0.290835	0.290835	0.290835		3.28722	0.0300306	0.0848474	0.0848474	0.0848474
3.57306	0.00944784	0.113934	0.113934	0.113934		3.57306	0.00944784	0.026994	0.026994	0.026994
3.85891	0.0202454	0.121175	0.121175	0.121175		3.85891	0.0161963	0.022128	0.022128	0.022128
4.14475	0.0344171	0.274585	0.274585	0.274585		4.14475	0.0384662	0.0859066	0.0859066	0.0859066
4.4306	0.035092	0.150087	0.150087	0.150087		4.4306	0.035092	0.046067	0.046067	0.046067
4.71644	0.0182208	0.0851489	0.0851489	0.0851489		4.71644	0.0182208	0.0343565	0.0343565	0.0343565
5.00229	0.0597238	0.178487	0.178487	0.178487		5.00229	0.0536502	0.066603	0.066603	0.066603
5.28813	0.0634355	0.145127	0.145127	0.145127		5.28813	0.0695091	0.0782167	0.0782167	0.0782167
5.57398	0.0283435	0.0573187	0.0573187	0.0573187		5.57398	0.0283435	0.0470404	0.0470404	0.0470404
5.85982	0.0992023	0.143418	0.143418	0.143418		5.85982	0.0992023	0.103731	0.103731	0.103731
6.14567	0.115399	0.118916	0.118916	0.118916		6.14567	0.115399	0.106616	0.106616	0.106616
6.43151	0.0485889	0.031355	0.031355	0.031355		6.43151	0.0657974	0.0644181	0.0644181	0.0644181
6.71736	0.180521	0.105065	0.105065	0.105065		6.71736	0.171411	0.142969	0.142969	0.142969
7.0032	0.0951532	0.0610017	0.0610017	0.0610017		7.0032	0.0992023	0.132337	0.132337	0.132337
7.28905	0.137668	0.0642475	0.0642475	0.0642475		7.28905	0.157914	0.19511	0.19511	0.19511
7.57489	0.141718	0.0494391	0.0494391	0.0494391		7.57489	0.109325	0.123875	0.123875	0.123875
7.86074	0.119448	0.0330433	0.0330433	0.0330433		7.86074	0.148803	0.227791	0.227791	0.227791
8.14658	0.154877	0.0340066	0.0340066	0.0340066		8.14658	0.149816	0.18681	0.18681	0.18681
8.43243	0.115399	0.0154337	0.0154337	0.0154337		8.43243	0.147791	0.171832	0.171832	0.171832
8.71827	0.159938	0.0171259	0.0171259	0.0171259		8.71827	0.131595	0.164286	0.164286	0.164286
9.00412	0.153865	0.00990373	0.00990373	0.00990373		9.00412	0.161963	0.181772	0.181772	0.181772
9.28997	0.128558	0.00527987	0.00527987	0.00527987		9.28997	0.128558	0.11039	0.11039	0.11039
9.57581	0.100552	0.0031876	0.0031876	0.0031876		9.57581	0.0701839	0.11251	0.11251	0.11251
9.86166	0.0911041	0.00281339	0.00281339	0.00281339		9.86166	0.0971777	0.140585	0.140585	0.140585
10.1475	0.0668097	0.00144616	0.00144616	0.00144616		10.1475	0.121472	0.142544	0.142544	0.142544
10.4333	0.103251	0.00157703	0.00157703	0.00157703		10.4333	0.067822	0.0807549	0.0807549	0.0807549
10.7192	0.0900919	0.0008373	0.0008373	0.0008373		10.7192	0.0769324	0.0713863	0.0713863	0.0713863
11.005	0.0647852	0.000326946	0.000326946	0.000326946		11.005	0.113374	0.0810669	0.0810669	0.0810669
11.2909	0.083006	0.000343084	0.000343084	0.000343084		11.2909	0.0445398	0.0173563	0.0173563	0.0173563
11.5767	0.0404907	6.29374e-05	6.29374e-05	6.29374e-05		11.5767	0.0819937	0.0336279	0.0336279	0.0336279
11.8626	0.0995397	0.000145778	0.000145778	0.000145778		11.8626	0.0884047	0.0168008	0.0168008	0.0168008
12.1484	0.101227	4.50006e-05	4.50006e-05	4.50006e-05		12.1484	0.172086	0.0281536	0.0281536	0.0281536
12.4343	0.161963	7.5564e-05	7.5564e-05	7.5564e-05		12.4343	0.177147	0.0190183	0.0190183	0.0190183
12.7201	0.195368	3.92583e-05	3.92583e-05	3.92583e-05		12.7201	0.147791	0.0137672	0.0137672	0.0137672
13.006	0.137668	2.30216e-05	2.30216e-05	2.30216e-05		13.006	0.127883	0.0101564	0.0101564	0.0101564
13.2918	0.0873925	1.11473e-05	1.11473e-05	1.11473e-05		13.2918	0.0627606	0.00257933	0.00257933	0.00257933
13.5776	0.0627606	3.11844e-06	3.11844e-06	3.11844e-06		13.5776	0.0224386	0.000351914	0.000351914	0.000351914
13.8635	0.0219325	3.66055e-07	3.66055e-07	3.66055e-07		13.8635	0	0	0	0
14.1493	0.000506134	1.17378e-14	1.06402e-14	1.06233e-14		14.1493	0	0	0	0
14.4352	0	0	0	0		14.4352	0	0	0	0
