Total Quantum Conductivity (W/m-K) = 	2.67621	2.67621	2.67621
Total Classical Conductivity (W/m-K) = 	4.16838	4.16838	4.16838

Quantum <(Delta/omega)^2>^1/2 = 	0.0380633
Quantum <(Gamma/omega)^2>^1/2 = 	0.00941767

Classical <(Delta/omega)^2>^1/2 = 	0.0112968
Classical <(Gamma/omega)^2>^1/2 = 	0.00642529

Quantum effective MFP (nm) = 	66.9298	66.9298	66.9298
Classical effective MFP (nm) = 	12.571	12.571	12.571

Quantum RMS Displacements in Angstroms
Atom 0:
  0.0992396  0.0992396  0.0992396  :  0.171888
Atom 1:
  0.0992396  0.0992396  0.0992396  :  0.171888
Atom 2:
  0.0992396  0.0992396  0.0992396  :  0.171888
Atom 3:
  0.0992396  0.0992396  0.0992396  :  0.171888
Average Quantum RMS Displacement = 0.171888

Classical RMS Displacements in Angstroms
Atom 0:
  0.0609508  0.0609508  0.0609508  :  0.10557
Atom 1:
  0.0609508  0.0609508  0.0609508  :  0.10557
Atom 2:
  0.0609508  0.0609508  0.0609508  :  0.10557
Atom 3:
  0.0609508  0.0609508  0.0609508  :  0.10557
Average Classical RMS Displacement = 0.10557



Density of States and Frequency Dependence of Thermal Conductivity
Quantum						Classical
Anharm Freq (1/ps)	DOS (area = 1e12)	k-DOS (area = 1e12)		Anharm Freq (1/ps)	DOS (area = 1e12)	k-DOS (area = 1e12)
0.14265	0	0	0	0		0.14265	0	0	0	0
0.42795	0	0	0	0		0.42795	0	0	0	0
0.713249	0	0	0	0		0.713249	0	0	0	0
0.998549	0	0	0	0		0.998549	0	0	0	0
1.28385	0	0	0	0		1.28385	0	0	0	0
1.56915	0	0	0	0		1.56915	0	0	0	0
1.85445	0	0	0	0		1.85445	0	0	0	0
2.13975	0	0	0	0		2.13975	0	0	0	0
2.42505	0	0	0	0		2.42505	0	0	0	0
2.71035	0	0	0	0		2.71035	0	0	0	0
2.99565	0	0	0	0		2.99565	0	0	0	0
3.28095	0.054767	0.0911317	0.0911317	0.0911317		3.28095	0.054767	0.0337657	0.0337657	0.0337657
3.56625	0.054767	0.789006	0.789006	0.789006		3.56625	0.054767	0.0732069	0.0732069	0.0732069
3.85155	0	0	0	0		3.85155	0	0	0	0
4.13685	0	0	0	0		4.13685	0	0	0	0
4.42215	0.0730226	0.198373	0.198373	0.198373		4.42215	0.0730226	0.051185	0.051185	0.051185
4.70745	0	0	0	0		4.70745	0	0	0	0
4.99275	0.0273835	1.01192	1.01192	1.01192		4.99275	0.0273835	0.520063	0.520063	0.520063
5.27805	0.054767	0.48998	0.48998	0.48998		5.27805	0.054767	0.0750793	0.0750793	0.0750793
5.56334	0	0	0	0		5.56334	0	0	0	0
5.84864	0.109534	0.205084	0.205084	0.205084		5.84864	0.109534	0.101292	0.101292	0.101292
6.13394	0.200812	0.116442	0.116442	0.116442		6.13394	0.200812	0.0592751	0.0592751	0.0592751
6.41924	0.219068	0.126354	0.126354	0.126354		6.41924	0.219068	0.158648	0.158648	0.158648
6.70454	0.054767	0.0782344	0.0782344	0.0782344		6.70454	0.054767	0.0328563	0.0328563	0.0328563
6.98984	0	0	0	0		6.98984	0	0	0	0
7.27514	0	0	0	0		7.27514	0	0	0	0
7.56044	0.273835	0.235777	0.235777	0.235777		7.56044	0.383369	1.05897	1.05897	1.05897
7.84574	0.109534	0.0404519	0.0404519	0.0404519		7.84574	0.109534	0.0356851	0.0356851	0.0356851
8.13104	0.219068	0.054563	0.054563	0.054563		8.13104	0.109534	0.0667028	0.0667028	0.0667028
8.41634	0.164301	0.0309181	0.0309181	0.0309181		8.41634	0.164301	0.117047	0.117047	0.117047
8.70164	0.054767	0.00696543	0.00696543	0.00696543		8.70164	0.054767	0.0311244	0.0311244	0.0311244
8.98694	0	0	0	0		8.98694	0	0	0	0
9.27224	0.191684	0.00605307	0.00605307	0.00605307		9.27224	0.465519	0.21461	0.21461	0.21461
9.55754	0.365113	0.015503	0.015503	0.015503		9.55754	0.0912783	0.267545	0.267545	0.267545
9.84284	0	0	0	0		9.84284	0	0	0	0
10.1281	0.054767	0.00249995	0.00249995	0.00249995		10.1281	0.054767	0.108245	0.108245	0.108245
10.4134	0	0	0	0		10.4134	0.109534	0.253864	0.253864	0.253864
10.6987	0.109534	0.00391496	0.00391496	0.00391496		10.6987	0	0	0	0
10.984	0.054767	0.000534351	0.000534351	0.000534351		10.984	0.164301	0.0941045	0.0941045	0.0941045
11.2693	0.109534	0.000466467	0.000466467	0.000466467		11.2693	0	0	0	0
11.5546	0.054767	7.99198e-05	7.99198e-05	7.99198e-05		11.5546	0.109534	0.0130956	0.0130956	0.0130956
11.8399	0.164301	0.00062443	0.00062443	0.00062443		11.8399	0.219068	0.0906092	0.0906092	0.0906092
12.1252	0.109534	2.04344e-05	2.04344e-05	2.04344e-05		12.1252	0	0	0	0
12.4105	0	0	0	0		12.4105	0.191684	0.0175528	0.0175528	0.0175528
12.6958	0.191684	8.46484e-05	8.46484e-05	8.46484e-05		12.6958	0.109534	0.00155335	0.00155335	0.00155335
12.9811	0.109534	5.05733e-06	5.05733e-06	5.05733e-06		12.9811	0.273835	0.0290079	0.0290079	0.0290079
13.2664	0.273835	9.66282e-05	9.66282e-05	9.66282e-05		13.2664	0	0	0	0
13.5517	0	0	0	0		13.5517	0.0319474	6.3626e-10	6.13448e-10	6.13097e-10
13.837	0.0182557	9.7222e-13	9.7222e-13	9.7222e-13		13.837	0	0	0	0
14.1223	0.0136917	5.6909e-13	5.15877e-13	5.15058e-13		14.1223	0	0	0	0
14.4076	0	0	0	0		14.4076	0	0	0	0
